#lambda  transmission
      100.000  1.44984e-11
      100.251  1.57760e-10
      100.503  2.69379e-10
      100.756  4.58092e-11
      101.010  2.87042e-11
      101.266  1.66986e-10
      101.523  1.31794e-10
      101.781  1.04452e-10
      102.041  3.72446e-10
      102.302  3.52140e-10
      102.564  1.93790e-10
      102.828  7.27486e-10
      103.093  1.41467e-09
      103.359  1.06205e-09
      103.627  1.18001e-09
      103.896  1.01287e-09
      104.167  5.77412e-10
      104.439  9.25572e-10
      104.712  1.13563e-09
      104.987  9.62651e-10
      105.263  7.65866e-09
      105.541  2.20892e-08
      105.820  3.81348e-08
      106.101  6.86705e-08
      106.383  1.68620e-07
      106.667  3.04453e-07
      106.952  2.82334e-07
      107.239  1.21862e-07
      107.527  2.23919e-08
      107.817  1.49646e-07
      108.108  2.76992e-07
      108.401  2.60504e-07
      108.696  3.80966e-07
      108.992  1.18597e-06
      109.290  4.09137e-06
      109.589  9.33367e-06
      109.890  1.51039e-05
      110.193  2.14342e-05
      110.497  3.64381e-05
      110.803  5.79294e-05
      111.111  8.40085e-05
      111.421  0.000122635
      111.732  0.000185827
      112.045  0.000250613
      112.360  0.000327316
      112.676  0.000423595
      112.994  0.000563768
      113.314  0.000744720
      113.636   0.00100742
      113.960   0.00129182
      114.286   0.00148854
      114.613   0.00164058
      114.943   0.00192350
      115.274   0.00225064
      115.607   0.00245514
      115.942   0.00260314
      116.279   0.00290209
      116.618   0.00331417
      116.959   0.00389644
      117.302   0.00460337
      117.647   0.00520291
      117.994   0.00591098
      118.343   0.00694402
      118.694   0.00815097
      119.048   0.00955558
      119.403    0.0112793
      119.760    0.0129742
      120.120    0.0149096
      120.482    0.0175564
      120.846    0.0205002
      121.212    0.0236869
      121.581    0.0275294
      121.951    0.0317968
      122.324    0.0366715
      122.699    0.0427702
      123.077    0.0496095
      123.457    0.0567781
      123.839    0.0656910
      124.224    0.0763843
      124.611    0.0872218
      125.000    0.0996466
      125.392     0.114529
      125.786     0.129435
      126.183     0.146434
      126.582     0.166544
      126.984     0.185356
      127.389     0.205597
      127.796     0.230493
      128.205     0.252862
      128.617     0.274605
      129.032     0.301586
      129.450     0.324261
      129.870     0.343256
      130.293     0.367845
      130.719     0.388629
      131.148     0.403465
      131.579     0.422941
      132.013     0.437648
      132.450     0.441607
      132.890     0.448333
      133.333     0.454161
      133.779     0.450629
      134.228     0.450380
      134.680     0.453477
      135.135     0.450510
      135.593     0.452333
      136.054     0.463038
      136.519     0.468239
      136.986     0.473924
      137.457     0.488863
      137.931     0.496747
      138.408     0.498928
      138.889     0.508083
      139.373     0.510638
      139.860     0.507472
      140.351     0.514133
      140.845     0.517551
      141.343     0.513237
      141.844     0.517836
      142.349     0.521810
      142.857     0.517146
      143.369     0.520022
      143.885     0.524563
      144.404     0.520245
      144.928     0.521576
      145.455     0.527749
      145.985     0.526550
      146.520     0.528340
      147.059     0.535338
      147.601     0.534712
      148.148     0.535202
      148.699     0.543420
      149.254     0.543501
      149.813     0.540527
      150.376     0.546614
      150.943     0.546654
      151.515     0.540914
      152.091     0.545060
      152.672     0.545702
      153.257     0.539329
      153.846     0.543259
      154.440     0.546314
      155.039     0.540564
      155.642     0.542747
      156.250     0.544672
      156.863     0.536338
      157.480     0.535639
      158.103     0.538078
      158.730     0.529592
      159.363     0.524246
      160.000     0.524885
      160.643     0.516854
      161.290     0.509749
      161.943     0.510861
      162.602     0.506278
      163.265     0.499765
      163.934     0.501560
      164.609     0.498322
      165.289     0.489745
      165.975     0.489233
      166.667     0.485033
      167.364     0.473850
      168.067     0.471473
      168.776     0.470701
      169.492     0.460580
      170.213     0.457268
      170.940     0.457957
      171.674     0.450658
      172.414     0.449159
      173.160     0.452309
      173.913     0.446053
      174.672     0.442808
      175.439     0.445406
      176.211     0.440926
      176.991     0.438277
      177.778     0.441164
      178.571     0.435159
      179.372     0.429747
      180.180     0.432801
      180.995     0.432525
      181.818     0.430561
      182.648     0.436655
      183.486     0.439237
      184.332     0.433252
      185.185     0.433453
      186.047     0.435221
      186.916     0.432822
      187.793     0.434708
      188.679     0.435832
      189.573     0.428704
      190.476     0.424391
      191.388     0.422630
      192.308     0.415795
      193.237     0.410199
      194.175     0.404831
      195.122     0.389426
      196.078     0.374824
      197.044     0.367303
      198.020     0.355677
      199.005     0.342366
      200.000     0.333008
      201.005     0.314394
      202.020     0.294157
      203.046     0.281663
      204.082     0.264420
      205.128     0.241459
      206.186     0.225093
      207.254     0.206788
      208.333     0.181573
      209.424     0.164831
      210.526     0.150374
      211.640     0.135176
      212.766     0.121540
      213.904     0.107791
      215.054    0.0935674
      216.216    0.0824636
      217.391    0.0728849
      218.579    0.0633384
      219.780    0.0554151
      220.994    0.0483053
      222.222    0.0416941
      223.464    0.0369463
      224.719    0.0329053
      225.989    0.0283741
      227.273    0.0246204
      228.571    0.0218736
      229.885    0.0189894
      231.214    0.0162381
      232.558    0.0142240
      233.918    0.0124761
      235.294    0.0110169
      236.686   0.00981079
      238.095   0.00872457
      239.521   0.00768624
      240.964   0.00696210
      242.424   0.00621258
      243.902   0.00530756
      245.399   0.00483532
      246.914   0.00441655
      248.447   0.00382560
      250.000   0.00342918
      251.572   0.00311640
      253.165   0.00277419
      254.777   0.00250796
      256.410   0.00230413
      258.065   0.00206978
      259.740   0.00185783
      261.438   0.00168116
      263.158   0.00145605
      264.901   0.00126254
      266.667   0.00112912
      268.456  0.000973585
      270.270  0.000813358
      272.109  0.000721266
      273.973  0.000632519
      275.862  0.000536914
      277.778  0.000490238
      279.720  0.000460335
      281.690  0.000404333
      283.688  0.000357744
      285.714  0.000325416
      287.770  0.000276595
      289.855  0.000222896
      291.971  0.000195095
      294.118  0.000157043
      296.296  0.000131468
      298.507  0.000149750
      300.752  0.000163359